Date and Time:                Thu Oct 24 16:25:01.000 2024
Software Version:             4.32.30065.0
Temperature (C):              -55
Model:                        DV401_BVF
Data Type:                    Counts
Acquisition Mode:             Accumulate
Trigger Mode:                 Internal
Exposure Time (secs):         0.01223
Accumulate Cycle Time (secs): 0.01223
Frequency (Hz):               81.766
Number of Accumulations:      10
Readout Mode:                 Full Vertical Binning
Horizontal binning:           1
Shutter Mode:                 Fully AUTO
TTL level:                    High
Time to open:                 10 ms
Time to close:                0 ms
Extended Data Range:          off
Horizontally flipped:         false
Vertical Shift Speed (usecs): 8.25
Pixel Readout Time (usecs):   10
Serial Number:                26963
Pre-Amplifier Gain:           1.000000
Spurious Noise Filter Mode:   No Filter
Photon counted:               false
Data Averaging Filter Mode:   No Filter
SR163:
Serial Number:                
Wavelength (nm):              600
Grating Groove Density (l/mm):600



475.05103	1462
475.30023	1381
475.54941	1414
475.79858	1428
476.04773	1411
476.29688	1424
476.54599	1418
476.7951	1421
477.04419	1422
477.29327	1405
477.54233	1429
477.79135	1403
478.04037	1421
478.2894	1416
478.53839	1433
478.78735	1405
479.03635	1449
479.28528	1384
479.53421	1436
479.78311	1414
480.03201	1428
480.28091	1406
480.52979	1412
480.77863	1421
481.02747	1433
481.27628	1418
481.52509	1422
481.77386	1428
482.02264	1431
482.27139	1411
482.52014	1407
482.76886	1417
483.01758	1431
483.26627	1430
483.51495	1446
483.76361	1386
484.01224	1460
484.26086	1385
484.50949	1441
484.75809	1402
485.00665	1444
485.25522	1390
485.50375	1437
485.75229	1412
486.00082	1438
486.2493	1435
486.4978	1404
486.74625	1424
486.99469	1417
487.24313	1413
487.49155	1432
487.73996	1418
487.98834	1415
488.23669	1441
488.48505	1404
488.7334	1426
488.98169	1407
489.23001	1424
489.4783	1404
489.72656	1418
489.97482	1429
490.22305	1426
490.47125	1421
490.71945	1421
490.96765	1423
491.21582	1432
491.46396	1424
491.7121	1409
491.96024	1416
492.20831	1425
492.45642	1424
492.70447	1421
492.95255	1433
493.20056	1416
493.44858	1416
493.69659	1423
493.94458	1430
494.19254	1435
494.44049	1422
494.68842	1433
494.93634	1424
495.18423	1429
495.43213	1434
495.67999	1418
495.92786	1438
496.17566	1420
496.42349	1423
496.6713	1430
496.91907	1430
497.16684	1416
497.41458	1425
497.66232	1429
497.91003	1424
498.15771	1435
498.4054	1434
498.65308	1453
498.90073	1422
499.14835	1442
499.39597	1437
499.64355	1417
499.89111	1422
500.13867	1431
500.38623	1454
500.63376	1428
500.88126	1428
501.12875	1456
501.37622	1419
501.62369	1458
501.87112	1428
502.11853	1434
502.36594	1459
502.61334	1456
502.86069	1432
503.10806	1437
503.35538	1474
503.60269	1426
503.85001	1468
504.09729	1449
504.34454	1477
504.5918	1449
504.83902	1459
505.08624	1475
505.33344	1447
505.5806	1470
505.82776	1483
506.07492	1453
506.32202	1460
506.56915	1481
506.81622	1483
507.06329	1475
507.31036	1480
507.5574	1483
507.80441	1487
508.05142	1532
508.2984	1492
508.54535	1497
508.7923	1507
509.03925	1510
509.28613	1522
509.53305	1543
509.77991	1506
510.02676	1528
510.27362	1526
510.52045	1560
510.76724	1537
511.01404	1552
511.2608	1566
511.50754	1560
511.75427	1581
512.00098	1584
512.24768	1570
512.49438	1595
512.74103	1605
512.98767	1601
513.23431	1620
513.4809	1642
513.72748	1654
513.97406	1631
514.22064	1663
514.46716	1674
514.71368	1692
514.96014	1714
515.20667	1691
515.45313	1737
515.69952	1730
515.94598	1757
516.19238	1775
516.43878	1776
516.68512	1801
516.93146	1832
517.1778	1845
517.42413	1853
517.67041	1886
517.91669	1905
518.16296	1896
518.40918	1929
518.65546	1960
518.90161	1981
519.14783	1999
519.39398	2036
519.64014	2064
519.88629	2096
520.13239	2141
520.37848	2140
520.62457	2186
520.87061	2239
521.11664	2238
521.36267	2306
521.60864	2328
521.85461	2352
522.10059	2430
522.34656	2429
522.59247	2489
522.83838	2533
523.08429	2597
523.33014	2645
523.57599	2714
523.82184	2773
524.06763	2798
524.31342	2864
524.5592	2955
524.80493	3037
525.05072	3030
525.29639	3165
525.54211	3166
525.78778	3280
526.03345	3353
526.27911	3421
526.52472	3537
526.77032	3596
527.01593	3707
527.26147	3806
527.50702	3920
527.75256	3969
527.99805	4084
528.24353	4196
528.48901	4320
528.7345	4478
528.97992	4565
529.22534	4698
529.4707	4835
529.71613	4972
529.96143	5147
530.20679	5272
530.45209	5406
530.69739	5597
530.94269	5747
531.18793	5904
531.43317	6115
531.67841	6283
531.92365	6458
532.16882	6682
532.41394	6903
532.65912	7119
532.90424	7272
533.14935	7589
533.39441	7819
533.63947	8041
533.88452	8317
534.12958	8587
534.37457	8828
534.61957	9130
534.86456	9436
535.1095	9754
535.35443	10085
535.5993	10393
535.84424	10731
536.08911	11109
536.33392	11505
536.5788	11866
536.82361	12291
537.06836	12659
537.31317	13057
537.55792	13560
537.80261	14007
538.04736	14492
538.29205	15028
538.53674	15505
538.78137	16021
539.026	16592
539.27063	17115
539.5152	17712
539.75983	18333
540.00433	19014
540.2489	19622
540.49341	20351
540.73792	21016
540.98236	21808
541.22681	22577
541.47125	23462
541.7157	24229
541.96008	25116
542.20447	26036
542.44879	27038
542.69318	28020
542.93744	29108
543.18176	30131
543.42603	31278
543.67029	32441
543.91455	33726
544.15875	35015
544.40295	36372
544.64709	37793
544.8913	39209
545.13538	40846
545.37952	42310
545.6236	43986
545.86768	45735
546.11176	47542
546.35577	49491
546.59979	51457
546.84375	53517
547.08777	55699
547.33173	58052
547.57562	60329
547.81952	62935
548.06342	65516
548.30731	68425
548.55115	71068
548.79498	74289
549.03882	77580
549.28259	80974
549.52637	84525
549.77008	88271
550.01385	92176
550.25751	96148
550.50122	100464
550.74487	104779
550.98853	109153
551.23218	113679
551.47577	118293
551.71936	123060
551.96289	127767
552.20642	132472
552.44995	137064
552.69348	141475
552.93695	146197
553.18042	150508
553.42383	154812
553.66724	158851
553.91064	162936
554.15405	166949
554.3974	170207
554.64069	173850
554.88403	177326
555.12732	180202
555.37061	183239
555.61383	186312
555.85706	188786
556.10028	191276
556.34344	193559
556.58661	195614
556.82977	197723
557.07288	199696
557.31598	201553
557.55908	203125
557.80212	204436
558.04517	205865
558.28821	206741
558.53119	208033
558.77417	208640
559.01715	209248
559.26007	209938
559.50299	210209
559.74585	210482
559.98877	210569
560.23157	210947
560.47443	211162
560.71722	211162
560.96002	211113
561.20276	210945
561.4455	211085
561.68823	210983
561.93097	211151
562.17365	211324
562.41626	211333
562.65894	211351
562.90155	211901
563.1441	212066
563.38672	212482
563.62921	212894
563.87177	213094
564.11426	213419
564.35675	213460
564.59924	213469
564.84167	213513
565.08411	213262
565.32648	212831
565.56885	212561
565.81122	211651
566.05359	210924
566.2959	209721
566.53815	208395
566.78046	206654
567.02271	205184
567.26489	203173
567.50714	201352
567.74927	199136
567.99146	196934
568.23358	194535
568.47571	192108
568.71783	189362
568.9599	186743
569.20197	184176
569.44397	181579
569.68597	178946
569.92798	175990
570.16992	173329
570.41187	170595
570.65381	167863
570.89569	165071
571.13757	162130
571.37939	159435
571.62128	156701
571.86304	153791
572.10486	151215
572.34662	148428
572.58838	145794
572.83008	143268
573.07178	140601
573.31348	137903
573.55511	135554
573.79675	133186
574.03839	130803
574.27997	128370
574.52155	126257
574.76306	124131
575.00458	121974
575.24609	120077
575.48755	118165
575.729	116311
575.97046	114506
576.21185	112868
576.45325	111112
576.69464	109660
576.93597	108019
577.17731	106407
577.41858	105155
577.65985	103616
577.90112	102208
578.14233	100764
578.38354	99280
578.62476	97798
578.86591	96453
579.10706	95075
579.34821	93572
579.58929	92263
579.83032	90867
580.07141	89338
580.31244	87933
580.55347	86715
580.79443	85230
581.0354	83894
581.27631	82411
581.51721	81105
581.75812	79694
581.99902	78448
582.23987	77006
582.48065	75748
582.7215	74400
582.96228	73194
583.203	71770
583.44373	70488
583.68445	69219
583.92517	68032
584.16583	66670
584.40643	65540
584.64709	64273
584.8877	63069
585.12823	61936
585.36877	60709
585.60931	59520
585.84985	58325
586.09033	57258
586.33075	56081
586.57123	54892
586.81165	53932
587.052	52763
587.29236	51829
587.53271	50689
587.77307	49644
588.01337	48663
588.2536	47783
588.4939	46794
588.73407	45867
588.9743	44955
589.21448	43991
589.45465	43232
589.69476	42388
589.93488	41466
590.17499	40686
590.41504	39954
590.65509	39229
590.89508	38246
591.13507	37535
591.37506	36891
591.61505	36143
591.85492	35449
592.09485	34731
592.33472	34046
592.57458	33341
592.81439	32668
593.0542	32064
593.29401	31445
593.53375	30788
593.7735	30213
594.01324	29504
594.25293	28994
594.49255	28363
594.73224	27780
594.97186	27176
595.21143	26586
595.45099	26058
595.69055	25519
595.93005	25011
596.16956	24425
596.40906	23976
596.6485	23424
596.88794	22941
597.12738	22512
597.36676	22042
597.60608	21508
597.84546	21052
598.08472	20604
598.32404	20183
598.56329	19815
598.80255	19347
599.04175	18873
599.28094	18528
599.52008	18153
599.75928	17745
599.99835	17392
600.23749	16966
600.47656	16622
600.71558	16219
600.95459	15869
601.1936	15560
601.43262	15183
601.67157	14874
601.91046	14592
602.14935	14249
602.38824	13968
602.62714	13613
602.86597	13341
603.10474	13071
603.34351	12785
603.58228	12545
603.82104	12265
604.05975	11981
604.2984	11769
604.53711	11513
604.7757	11240
605.01434	11047
605.25293	10823
605.49152	10590
605.73004	10361
605.96857	10246
606.20703	9964
606.4455	9778
606.68396	9538
606.92236	9425
607.16077	9226
607.39911	9085
607.63745	8891
607.87579	8716
608.11407	8544
608.35236	8415
608.59064	8252
608.82886	8073
609.06702	7948
609.30518	7786
609.54333	7687
609.78149	7516
610.01959	7402
610.25763	7286
610.49573	7217
610.7337	6992
610.97174	6903
611.20972	6815
611.44763	6664
611.68561	6554
611.92346	6472
612.16138	6349
612.39923	6230
612.63702	6133
612.87482	6080
613.11261	5967
613.3504	5880
613.58807	5761
613.82581	5701
614.06348	5582
614.30115	5505
614.53876	5468
614.77637	5377
615.01392	5285
615.25153	5216
615.48901	5137
615.7265	5075
615.96399	5009
616.20148	4945
616.4389	4852
616.67627	4794
616.9137	4736
617.151	4663
617.38837	4622
617.62567	4525
617.86292	4476
618.10016	4425
618.3374	4399
618.57458	4330
618.81177	4270
619.04895	4242
619.28607	4183
619.52313	4147
619.76025	4075
619.99731	4045
620.23431	3987
620.47131	3955
620.70825	3913
620.94525	3904
621.18213	3844
621.41907	3792
621.65594	3774
621.89276	3707
622.12958	3695
622.36639	3641
622.60315	3599
622.8399	3568
623.0766	3534
623.31329	3503
623.54999	3456
623.78662	3453
624.02325	3413
624.25983	3382
624.4964	3353
624.73291	3324
624.96942	3297
625.20593	3265
625.44238	3218
625.67883	3224
625.91522	3186
626.15161	3167
626.388	3120
626.62433	3128
626.86066	3073
627.09692	3077
627.33319	3038
627.5694	3012
627.8056	2980
628.04181	2962
628.27795	2955
628.51404	2921
628.75018	2892
628.98627	2866
629.22229	2873
629.45831	2852
629.69434	2798
629.9303	2807
630.1662	2786
630.40216	2762
630.63806	2744
630.8739	2744
631.10974	2728
631.34558	2698
631.58136	2674
631.81708	2668
632.05286	2653
632.28857	2622
632.52423	2598
632.75989	2605
632.99554	2592
633.23114	2576
633.46674	2566
633.70227	2543
633.93781	2536
634.17328	2511
634.40875	2512
634.64423	2495
634.87964	2479
635.11499	2459
635.3504	2443
635.58575	2435
635.82104	2421
636.05634	2419
636.29156	2388
636.52686	2393
636.76202	2371
636.99719	2360
637.23236	2345
637.46753	2338
637.70264	2337
637.93768	2317
638.17273	2304
638.40778	2290
638.64276	2287
638.87775	2262
639.11267	2269
639.3476	2260
639.58246	2243
639.81732	2245
640.05219	2228
640.28699	2223
640.52179	2198
640.75653	2195
640.99127	2201
641.22595	2173
641.46063	2175
641.69525	2158
641.92987	2153
642.16449	2160
642.39905	2141
642.63361	2125
642.8681	2131
643.1026	2125
643.33704	2099
643.57147	2110
643.80591	2102
644.04028	2097
644.27466	2078
644.50897	2080
644.74329	2078
644.97754	2063
645.21179	2050
645.44598	2052
645.68018	2039
645.91437	2034
646.1485	2049
646.38257	2022
646.61664	2023
646.85071	2022
647.08478	2016
647.31873	2010
647.55273	1998
647.78668	1998
648.02057	1991
648.25446	1989
648.48834	1986
648.72217	1974
648.95599	1968
649.18976	1973
649.42352	1961
649.65723	1959
649.89093	1956
650.12463	1964
650.35828	1937
650.59186	1946
650.82544	1939
651.05902	1943
651.29254	1935
651.52606	1927
651.75952	1936
651.99298	1937
652.22644	1932
652.45984	1916
652.69318	1921
652.92651	1911
653.15985	1917
653.39313	1924
653.6264	1901
653.85962	1896
654.09283	1914
654.32599	1894
654.55914	1901
654.79224	1887
655.02533	1903
655.25842	1897
655.49146	1889
655.72443	1890
655.9574	1886
656.19037	1878
656.42328	1881
656.65619	1869
656.88904	1866
657.12189	1870
657.35474	1873
657.58752	1875
657.82025	1881
658.05298	1868
658.28571	1886
658.51837	1863
658.75098	1869
658.98364	1864
659.21619	1867
659.44879	1862
659.68127	1865
659.91382	1866
660.1463	1869
660.37872	1866
660.61115	1855
660.84357	1867
661.07593	1869
661.30823	1866
661.54053	1860
661.77283	1859
662.00507	1862
662.2373	1875
662.46948	1870
662.70166	1871
662.93378	1866
663.16589	1867
663.39795	1856
663.63	1853
663.86206	1864
664.09406	1854
664.32599	1862
664.55792	1871
664.78986	1851
665.02173	1864
665.2536	1868
665.48541	1868
665.71722	1872
665.94897	1857
666.18073	1871
666.41241	1865
666.6441	1865
666.87573	1870
667.10736	1869
667.33899	1882
667.57056	1871
667.80206	1877
668.03357	1878
668.26508	1879
668.49652	1869
668.72797	1881
668.95935	1879
669.19073	1863
669.42206	1879
669.65332	1881
669.88464	1874
670.11591	1876
670.34711	1882
670.57831	1876
670.80945	1874
671.04059	1895
671.27167	1894
671.50275	1883
671.73383	1882
671.96484	1890
672.1958	1879
672.42676	1887
672.65771	1907
672.88861	1896
673.11951	1892
673.35034	1898
673.58118	1900
673.81195	1903
674.04272	1902
674.27344	1890
674.50415	1905
674.7348	1921
674.96545	1901
675.19604	1907
675.42664	1920
675.65717	1912
675.8877	1909
676.11816	1937
676.34863	1921
676.5791	1912
676.80951	1914
677.03986	1914
677.2702	1921
677.50055	1928
677.73083	1928
677.96106	1925
678.19135	1933
678.42151	1930
678.65167	1938
678.88184	1942
679.11194	1932
679.34204	1935
679.57208	1935
679.80212	1943
680.0321	1943
680.26208	1950
680.492	1941
680.72192	1950
680.95178	1955
681.18164	1948
681.41144	1951
681.64124	1960
681.87097	1954
682.10071	1953
682.33038	1949
682.56006	1969
682.78967	1960
683.01929	1955
683.2489	1962
683.47845	1972
683.70795	1980
683.93744	1971
684.16687	1970
684.3963	1971
684.62573	1980
684.8551	1976
685.08441	1970
685.31372	1979
685.54303	1997
685.77228	1979
686.00146	1975
686.23065	1991
686.45984	1977
686.68896	1985
686.91809	1988
687.14716	2001
687.37616	1989
687.60516	1979
687.83417	1997
688.06311	1988
688.29205	1991
688.52094	1990
688.74976	1999
688.97858	2013
689.2074	1993
689.43616	1987
689.66492	1998
689.89362	1987
690.12231	2007
690.35095	1999
690.57953	2006
690.80817	2015
691.03668	2013
691.2652	2014
691.49371	2009
691.72217	2020
691.95062	2007
692.17902	2012
692.40741	2025
692.63574	2026
692.86401	2024
693.09235	2010
693.32056	2010
693.54877	2018
693.77698	2016
694.00513	2030
694.23328	2026
694.46136	2019
694.68945	2034
694.91748	2028
695.14545	2023
695.37347	2031
695.60138	2016
695.82928	2032
696.05719	2036
696.28503	2022
696.51288	2030
696.74066	2015
696.96844	2029
697.19617	2029
697.42383	2019
697.65149	2036
697.87915	2036
698.10675	2033
698.33435	2034
698.56189	2036
698.78937	2028
699.01685	2025
699.24432	2031
699.47174	2033
699.69916	2033
699.92651	2038
700.15381	2049
700.3811	2038
700.6084	2032
700.83563	2035
701.06281	2040
701.28998	2044
701.51715	2021
701.74426	2033
701.97131	2035
702.19836	2017
702.42542	2018
702.65234	2035
702.87933	2036
703.10626	2039
703.33313	2016
703.56	2022
703.7868	2031
704.01361	2031
704.24042	2010
704.4671	2027
704.69385	2033
704.92053	2028
705.14716	2035
705.37378	2015
705.60034	2010
705.8269	2017
706.05341	2009
706.27991	2008
706.50635	2002
706.73273	2024
706.95917	2016
707.18549	1998
707.4118	2010
707.63812	2011
707.86438	2001
708.09064	1999
708.31683	1995
708.54297	2012
708.7691	1997
708.99524	2010
709.22131	2004
709.44733	1993
709.67334	1995
709.89935	1993
710.12531	1999
710.3512	1982
710.57709	1984
710.80292	1983
711.02875	1975
711.25452	1969
711.48029	1984
711.70599	1985
711.9317	1974
712.15735	1970
712.383	1957
712.60858	1965
712.83417	1960
713.05969	1960
713.28522	1941
713.51068	1950
713.73608	1947
713.96149	1957
714.18689	1945
714.41223	1947
714.63751	1932
714.86279	1945
715.08807	1927
715.31323	1918
715.53845	1923
715.76361	1931
715.98871	1917
716.21381	1926
716.43884	1909
716.66388	1914
716.88885	1908
717.11377	1912
717.33875	1915
717.5636	1899
717.78845	1905
718.01331	1897
718.2381	1905
718.46283	1898
718.68756	1896
718.91229	1886
